	XPS_UPS_18Jan2022/Au/Au/2: Sequence/Valence-HeI	
Binding energy (eV)	Counts per second	Trans Fn
9.22	114709	22508.82283
9.2	114919	22509.20735
9.18	114591	22509.59185
9.16	114968	22509.97633
9.14	114500	22510.3608
9.12	114075	22510.74525
9.1	114258	22511.12969
9.08	114355	22511.51411
9.06	114206	22511.89852
9.04	114288	22512.28291
9.02	113834	22512.66729
9	113750	22513.05166
8.98	113784	22513.436
8.96	113757	22513.82034
8.94	113823	22514.20465
8.92	113008	22514.58896
8.9	113134	22514.97325
8.88	113076	22515.35752
8.86	112771	22515.74178
8.84	113071	22516.12602
8.82	113114	22516.51025
8.8	112633	22516.89446
8.78	112050	22517.27866
8.76	111809	22517.66284
8.74	111787	22518.04701
8.72	111690	22518.43116
8.7	111563	22518.8153
8.68	111264	22519.19942
8.66	111008	22519.58353
8.64	110684	22519.96762
8.62	110552	22520.3517
8.6	110426	22520.73576
8.58	110595	22521.11981
8.56	110170	22521.50384
8.54	109868	22521.88786
8.52	109964	22522.27186
8.5	109612	22522.65585
8.48	109590	22523.03982
8.46	109136	22523.42378
8.44	108775	22523.80772
8.42	108535	22524.19165
8.4	108548	22524.57556
8.38	108053	22524.95945
8.36	108500	22525.34334
8.34	108007	22525.7272
8.32	107339	22526.11105
8.3	107228	22526.49489
8.28	107793	22526.87871
8.26	107584	22527.26252
8.24	107543	22527.64631
8.22	107121	22528.03009
8.2	106613	22528.41385
8.18	107320	22528.79759
8.16	106968	22529.18132
8.14	106636	22529.56504
8.12	106754	22529.94874
8.1	107170	22530.33243
8.08	107199	22530.7161
8.06	106973	22531.09975
8.04	106431	22531.48339
8.02	106609	22531.86702
8	107102	22532.25063
7.98	107175	22532.63423
7.96	106902	22533.01781
7.94	106968	22533.40137
7.92	106987	22533.78492
7.9	107319	22534.16846
7.88	107394	22534.55198
7.86	107566	22534.93548
7.84	107700	22535.31897
7.82	108083	22535.70244
7.8	108049	22536.0859
7.78	108014	22536.46935
7.76	108730	22536.85278
7.74	108966	22537.23619
7.72	109066	22537.61959
7.7	109273	22538.00297
7.68	109295	22538.38634
7.66	109577	22538.7697
7.64	110072	22539.15304
7.62	110776	22539.53636
7.6	110990	22539.91967
7.58	111182	22540.30296
7.56	111609	22540.68624
7.54	111709	22541.0695
7.52	111898	22541.45275
7.5	112114	22541.83598
7.48	113281	22542.2192
7.46	113763	22542.6024
7.44	113907	22542.98559
7.42	114178	22543.36876
7.4	114919	22543.75192
7.38	115564	22544.13506
7.36	115590	22544.51819
7.34	116051	22544.9013
7.32	116376	22545.2844
7.3	116718	22545.66748
7.28	117149	22546.05054
7.26	116389	22546.4336
7.24	117499	22546.81663
7.22	117680	22547.19965
7.2	117304	22547.58266
7.18	118161	22547.96565
7.16	118237	22548.34863
7.14	118043	22548.73159
7.12	118803	22549.11453
7.1	118691	22549.49746
7.08	118603	22549.88038
7.06	118683	22550.26328
7.04	118384	22550.64616
7.02	118492	22551.02903
7	118898	22551.41189
6.98	118948	22551.79472
6.96	118911	22552.17755
6.94	119150	22552.56036
6.92	118996	22552.94315
6.9	118965	22553.32593
6.88	119895	22553.70869
6.86	120148	22554.09144
6.84	120829	22554.47418
6.82	120801	22554.85689
6.8	121256	22555.2396
6.78	121876	22555.62228
6.76	121993	22556.00496
6.74	123457	22556.38761
6.72	124151	22556.77026
6.7	124472	22557.15288
6.68	125054	22557.5355
6.66	125525	22557.91809
6.64	126512	22558.30067
6.62	128061	22558.68324
6.6	129089	22559.06579
6.58	130678	22559.44833
6.56	131808	22559.83085
6.54	134802	22560.21335
6.52	136180	22560.59585
6.5	137969	22560.97832
6.48	140796	22561.36078
6.46	143201	22561.74323
6.44	146568	22562.12566
6.42	149302	22562.50807
6.4	153009	22562.89047
6.38	155961	22563.27285
6.36	159661	22563.65522
6.34	164741	22564.03758
6.32	168562	22564.41992
6.3	173230	22564.80224
6.28	177291	22565.18455
6.26	182942	22565.56684
6.24	186443	22565.94912
6.22	190454	22566.33138
6.2	193755	22566.71363
6.18	196549	22567.09586
6.16	197379	22567.47808
6.14	197026	22567.86028
6.12	195730	22568.24247
6.1	194673	22568.62464
6.08	192294	22569.0068
6.06	189320	22569.38894
6.04	185398	22569.77106
6.02	182236	22570.15317
6	178749	22570.53527
5.98	176067	22570.91735
5.96	172673	22571.29942
5.94	170449	22571.68147
5.92	167754	22572.0635
5.9	165791	22572.44552
5.88	163841	22572.82752
5.86	161664	22573.20951
5.84	160365	22573.59149
5.82	157894	22573.97345
5.8	155824	22574.35539
5.78	153751	22574.73732
5.76	152190	22575.11923
5.74	149806	22575.50113
5.72	148532	22575.88301
5.7	146508	22576.26488
5.68	144008	22576.64673
5.66	142790	22577.02857
5.64	141470	22577.41039
5.62	139523	22577.79219
5.6	138156	22578.17399
5.58	136544	22578.55576
5.56	134641	22578.93752
5.54	134348	22579.31927
5.52	132814	22579.701
5.5	130947	22580.08271
5.48	130105	22580.46441
5.46	128967	22580.8461
5.44	128045	22581.22777
5.42	127204	22581.60942
5.4	126576	22581.99106
5.38	125524	22582.37268
5.36	125255	22582.75429
5.34	124230	22583.13588
5.32	123617	22583.51746
5.3	123427	22583.89903
5.28	122731	22584.28057
5.26	121817	22584.6621
5.24	121822	22585.04362
5.22	121531	22585.42512
5.2	122017	22585.80661
5.18	121554	22586.18808
5.16	122100	22586.56954
5.14	122625	22586.95098
5.12	122605	22587.3324
5.1	123101	22587.71381
5.08	123921	22588.09521
5.06	124528	22588.47659
5.04	124759	22588.85795
5.02	125404	22589.2393
5	126291	22589.62063
4.98	126526	22590.00195
4.96	127308	22590.38325
4.94	128220	22590.76454
4.92	128887	22591.14581
4.9	129433	22591.52707
4.88	129573	22591.90831
4.86	129599	22592.28954
4.84	130693	22592.67075
4.82	131176	22593.05195
4.8	131648	22593.43313
4.78	132430	22593.8143
4.76	133800	22594.19545
4.74	135255	22594.57658
4.72	136795	22594.9577
4.7	138475	22595.33881
4.68	141116	22595.71989
4.66	143362	22596.10097
4.64	145563	22596.48203
4.62	148535	22596.86307
4.6	150576	22597.2441
4.58	152844	22597.62511
4.56	155061	22598.00611
4.54	157113	22598.38709
4.52	158505	22598.76806
4.5	159716	22599.14901
4.48	160607	22599.52995
4.46	160699	22599.91087
4.44	160685	22600.29177
4.42	160673	22600.67266
4.4	160396	22601.05354
4.38	159758	22601.4344
4.36	158819	22601.81524
4.34	157518	22602.19607
4.32	156700	22602.57689
4.3	155811	22602.95768
4.28	154283	22603.33847
4.26	153437	22603.71924
4.24	151568	22604.09999
4.22	149805	22604.48073
4.2	149278	22604.86145
4.18	147848	22605.24215
4.16	146280	22605.62285
4.14	145151	22606.00352
4.12	143558	22606.38418
4.1	142080	22606.76483
4.08	140653	22607.14546
4.06	139811	22607.52607
4.04	138476	22607.90667
4.02	137601	22608.28726
4	136754	22608.66782
3.98	135369	22609.04838
3.96	134398	22609.42892
3.94	133360	22609.80944
3.92	132439	22610.18995
3.9	131436	22610.57044
3.88	130073	22610.95092
3.86	128751	22611.33138
3.84	126674	22611.71182
3.82	125431	22612.09225
3.8	124311	22612.47267
3.78	123127	22612.85307
3.76	121733	22613.23345
3.74	120586	22613.61382
3.72	119430	22613.99418
3.7	118582	22614.37452
3.68	116828	22614.75484
3.66	116332	22615.13515
3.64	115347	22615.51544
3.62	114140	22615.89572
3.6	113603	22616.27598
3.58	112731	22616.65623
3.56	111947	22617.03646
3.54	111106	22617.41667
3.52	110087	22617.79687
3.5	109615	22618.17706
3.48	109207	22618.55723
3.46	108363	22618.93738
3.44	107751	22619.31752
3.42	106908	22619.69765
3.4	106634	22620.07776
3.38	105716	22620.45785
3.36	104872	22620.83793
3.34	104064	22621.21799
3.32	104255	22621.59804
3.3	103006	22621.97807
3.28	103010	22622.35808
3.26	102826	22622.73808
3.24	102604	22623.11807
3.22	102370	22623.49804
3.2	101251	22623.87799
3.18	101247	22624.25793
3.16	101050	22624.63786
3.14	100716	22625.01777
3.12	100412	22625.39766
3.1	99926	22625.77754
3.08	100086	22626.1574
3.06	99326	22626.53725
3.04	98658	22626.91708
3.02	98797	22627.2969
3	98647	22627.6767
2.98	98308	22628.05648
2.96	98125	22628.43625
2.94	97850	22628.81601
2.92	98333	22629.19575
2.9	98634	22629.57547
2.88	98236	22629.95518
2.86	98799	22630.33487
2.84	99076	22630.71455
2.82	99381	22631.09421
2.8	99613	22631.47386
2.78	99559	22631.85349
2.76	100473	22632.23311
2.74	100969	22632.61271
2.72	100891	22632.99229
2.7	100971	22633.37186
2.68	101220	22633.75142
2.66	100845	22634.13096
2.64	100755	22634.51048
2.62	99845	22634.88999
2.6	98479	22635.26948
2.58	96940	22635.64896
2.56	94806	22636.02842
2.54	92618	22636.40787
2.52	90058	22636.7873
2.5	87096	22637.16671
2.48	84241	22637.54612
2.46	80787	22637.9255
2.44	77015	22638.30487
2.42	73870	22638.68422
2.4	71053	22639.06356
2.38	67346	22639.44289
2.36	64251	22639.82219
2.34	61374	22640.20149
2.32	58143	22640.58076
2.3	55366	22640.96003
2.28	52393	22641.33927
2.26	49920	22641.7185
2.24	47382	22642.09772
2.22	45464	22642.47692
2.2	42745	22642.8561
2.18	40934	22643.23527
2.16	39091	22643.61442
2.14	37175	22643.99356
2.12	35796	22644.37269
2.1	34196	22644.75179
2.08	32843	22645.13088
2.06	31678	22645.50996
2.04	30407	22645.88902
2.02	29267	22646.26807
2	28099	22646.6471
1.98	27292	22647.02611
1.96	26413	22647.40511
1.94	25604	22647.78409
1.92	24672	22648.16306
1.9	23539	22648.54202
1.88	22959	22648.92095
1.86	22361	22649.29988
1.84	22088	22649.67878
1.82	21206	22650.05767
1.8	20619	22650.43655
1.78	20258	22650.81541
1.76	19566	22651.19425
1.74	19087	22651.57308
1.72	18592	22651.9519
1.7	18104	22652.33069
1.68	17655	22652.70948
1.66	17337	22653.08824
1.64	17067	22653.467
1.62	16568	22653.84573
1.6	16269	22654.22445
1.58	16154	22654.60316
1.56	15795	22654.98185
1.54	15581	22655.36052
1.52	15509	22655.73918
1.5	15184	22656.11783
1.48	14904	22656.49645
1.46	14853	22656.87507
1.44	14822	22657.25366
1.42	14474	22657.63224
1.4	14256	22658.01081
1.38	14197	22658.38936
1.36	14094	22658.7679
1.34	13878	22659.14642
1.32	13581	22659.52492
1.3	13661	22659.90341
1.28	13441	22660.28188
1.26	13399	22660.66034
1.24	13056	22661.03878
1.22	13028	22661.41721
1.2	12918	22661.79562
1.18	12740	22662.17402
1.16	12654	22662.5524
1.14	12472	22662.93076
1.12	12351	22663.30911
1.1	12529	22663.68744
1.08	12440	22664.06576
1.06	12080	22664.44407
1.04	11928	22664.82235
1.02	11779	22665.20062
1	12009	22665.57888
0.98	11891	22665.95712
0.96	11592	22666.33535
0.94	11478	22666.71356
0.92	11341	22667.09175
0.9	11175	22667.46993
0.88	11251	22667.84809
0.86	11036	22668.22624
0.84	11001	22668.60437
0.82	10966	22668.98249
0.8	10870	22669.36059
0.78	10775	22669.73868
0.76	10690	22670.11675
0.74	10524	22670.4948
0.72	10552	22670.87284
0.7	10472	22671.25086
0.68	10209	22671.62887
0.66	10305	22672.00686
0.64	10231	22672.38484
0.62	9979	22672.7628
0.6	9997	22673.14075
0.58	9893	22673.51868
0.56	9877	22673.89659
0.54	9645	22674.27449
0.52	9362	22674.65238
0.5	9392	22675.03024
0.48	9303	22675.4081
0.46	9196	22675.78593
0.44	9205	22676.16376
0.42	9039	22676.54156
0.4	8769	22676.91935
0.38	8650	22677.29713
0.36	8754	22677.67489
0.34	8638	22678.05263
0.32	8589	22678.43036
0.3	8367	22678.80807
0.28	8278	22679.18577
0.26	8178	22679.56345
0.24	8079	22679.94112
0.22	7964	22680.31877
0.2	7834	22680.6964
0.18	7695	22681.07402
0.16	7594	22681.45163
0.14	7516	22681.82921
0.12	7236	22682.20679
0.1	7053	22682.58434
0.08	6608	22682.96189
0.06	6053	22683.33941
0.04	5279	22683.71692
0.02	4478	22684.09442
0	3472	22684.4719
-0.02	2581	22684.84936
-0.04	1946	22685.22681
-0.06	1486	22685.60424
-0.08	1163	22685.98166
-0.1	982	22686.35906
-0.12	763	22686.73645
-0.14	683	22687.11382
-0.16	621	22687.49117
-0.18	592	22687.86851
-0.2	583	22688.24584
-0.22	535	22688.62314
-0.24	524	22689.00044
-0.26	503	22689.37771
-0.28	495	22689.75497
-0.3	499	22690.13222
-0.32	526	22690.50945
-0.34	488	22690.88667
-0.36	443	22691.26386
-0.38	445	22691.64105
-0.4	432	22692.01822
-0.42	432	22692.39537
-0.44	439	22692.77251
-0.46	415	22693.14963
-0.48	363	22693.52673
-0.5	383	22693.90382
-0.52	389	22694.2809
-0.54	382	22694.65796
-0.56	364	22695.035
-0.58	364	22695.41203
-0.6	368	22695.78904
-0.62	338	22696.16603
-0.64	336	22696.54302
-0.66	344	22696.91998
-0.68	354	22697.29693
-0.7	312	22697.67386
-0.72	322	22698.05078
-0.74	306	22698.42769
-0.76	299	22698.80457
-0.78	308	22699.18144
