	XPS_UPS_18Jan2022/BBL/Au/2/2: Sequence/Cut-Off	
Binding energy (eV)	Counts per second	Trans Fn
19.22	620	22314.71119
19.21	626.6666667	22314.90712
19.2	550	22315.10305
19.19	556.6666667	22315.29898
19.18	533.3333333	22315.4949
19.17	543.3333333	22315.69083
19.16	626.6666667	22315.88674
19.15	670	22316.08266
19.14	593.3333333	22316.27857
19.13	560	22316.47447
19.12	596.6666667	22316.67038
19.11	606.6666667	22316.86628
19.1	623.3333333	22317.06217
19.09	606.6666667	22317.25806
19.08	606.6666667	22317.45395
19.07	546.6666667	22317.64984
19.06	606.6666667	22317.84572
19.05	500	22318.0416
19.04	540	22318.23747
19.03	576.6666667	22318.43334
19.02	656.6666667	22318.62921
19.01	616.6666667	22318.82507
19	616.6666667	22319.02093
18.99	573.3333333	22319.21679
18.98	580	22319.41264
18.97	513.3333333	22319.60849
18.96	510	22319.80433
18.95	546.6666667	22320.00017
18.94	520	22320.19601
18.93	546.6666667	22320.39185
18.92	586.6666667	22320.58768
18.91	636.6666667	22320.78351
18.9	553.3333333	22320.97933
18.89	490	22321.17515
18.88	573.3333333	22321.37097
18.87	480	22321.56678
18.86	533.3333333	22321.76259
18.85	573.3333333	22321.95839
18.84	600	22322.15419
18.83	646.6666667	22322.34999
18.82	563.3333333	22322.54579
18.81	566.6666667	22322.74158
18.8	650	22322.93737
18.79	636.6666667	22323.13315
18.78	490	22323.32893
18.77	590	22323.52471
18.76	646.6666667	22323.72048
18.75	530	22323.91625
18.74	540	22324.11202
18.73	540	22324.30778
18.72	576.6666667	22324.50354
18.71	563.3333333	22324.69929
18.7	523.3333333	22324.89504
18.69	573.3333333	22325.09079
18.68	590	22325.28654
18.67	583.3333333	22325.48228
18.66	593.3333333	22325.67801
18.65	513.3333333	22325.87375
18.64	553.3333333	22326.06948
18.63	560	22326.2652
18.62	556.6666667	22326.46093
18.61	470	22326.65665
18.6	483.3333333	22326.85236
18.59	556.6666667	22327.04807
18.58	563.3333333	22327.24378
18.57	630	22327.43949
18.56	536.6666667	22327.63519
18.55	530	22327.83088
18.54	506.6666667	22328.02658
18.53	510	22328.22227
18.52	480	22328.41796
18.51	483.3333333	22328.61364
18.5	590	22328.80932
18.49	583.3333333	22329.00499
18.48	556.6666667	22329.20067
18.47	630	22329.39633
18.46	516.6666667	22329.592
18.45	550	22329.78766
18.44	560	22329.98332
18.43	550	22330.17897
18.42	623.3333333	22330.37462
18.41	616.6666667	22330.57027
18.4	623.3333333	22330.76591
18.39	616.6666667	22330.96155
18.38	630	22331.15719
18.37	600	22331.35282
18.36	596.6666667	22331.54845
18.35	616.6666667	22331.74407
18.34	643.3333333	22331.9397
18.33	556.6666667	22332.13531
18.32	593.3333333	22332.33093
18.31	660	22332.52654
18.3	620	22332.72215
18.29	696.6666667	22332.91775
18.28	583.3333333	22333.11335
18.27	610	22333.30895
18.26	600	22333.50454
18.25	690	22333.70013
18.24	720	22333.89571
18.23	723.3333333	22334.0913
18.22	666.6666667	22334.28687
18.21	660	22334.48245
18.2	620	22334.67802
18.19	643.3333333	22334.87359
18.18	766.6666667	22335.06915
18.17	693.3333333	22335.26471
18.16	703.3333333	22335.46027
18.15	703.3333333	22335.65582
18.14	700	22335.85137
18.13	736.6666667	22336.04691
18.12	760	22336.24246
18.11	746.6666667	22336.438
18.1	753.3333333	22336.63353
18.09	716.6666667	22336.82906
18.08	776.6666667	22337.02459
18.07	823.3333333	22337.22011
18.06	736.6666667	22337.41563
18.05	796.6666667	22337.61115
18.04	850	22337.80666
18.03	800	22338.00217
18.02	853.3333333	22338.19768
18.01	796.6666667	22338.39318
18	723.3333333	22338.58868
17.99	860	22338.78417
17.98	803.3333333	22338.97967
17.97	853.3333333	22339.17515
17.96	860	22339.37064
17.95	880	22339.56612
17.94	846.6666667	22339.7616
17.93	883.3333333	22339.95707
17.92	836.6666667	22340.15254
17.91	886.6666667	22340.348
17.9	973.3333333	22340.54347
17.89	883.3333333	22340.73893
17.88	960	22340.93438
17.87	883.3333333	22341.12983
17.86	913.3333333	22341.32528
17.85	950	22341.52073
17.84	1013.333333	22341.71617
17.83	1060	22341.9116
17.82	1030	22342.10704
17.81	946.6666667	22342.30247
17.8	1066.666667	22342.49789
17.79	1040	22342.69332
17.78	1150	22342.88873
17.77	1166.666667	22343.08415
17.76	1100	22343.27956
17.75	1246.666667	22343.47497
17.74	1116.666667	22343.67037
17.73	1153.333333	22343.86578
17.72	1133.333333	22344.06117
17.71	1243.333333	22344.25657
17.7	1236.666667	22344.45196
17.69	1286.666667	22344.64734
17.68	1226.666667	22344.84273
17.67	1306.666667	22345.0381
17.66	1220	22345.23348
17.65	1246.666667	22345.42885
17.64	1313.333333	22345.62422
17.63	1480	22345.81959
17.62	1316.666667	22346.01495
17.61	1380	22346.2103
17.6	1486.666667	22346.40566
17.59	1380	22346.60101
17.58	1496.666667	22346.79635
17.57	1590	22346.9917
17.56	1403.333333	22347.18704
17.55	1630	22347.38237
17.54	1690	22347.5777
17.53	1643.333333	22347.77303
17.52	1686.666667	22347.96836
17.51	1613.333333	22348.16368
17.5	1590	22348.359
17.49	1600	22348.55431
17.48	1690	22348.74962
17.47	1676.666667	22348.94493
17.46	1636.666667	22349.14023
17.45	1753.333333	22349.33553
17.44	1760	22349.53083
17.43	1736.666667	22349.72612
17.42	1776.666667	22349.92141
17.41	1646.666667	22350.11669
17.4	1816.666667	22350.31197
17.39	1913.333333	22350.50725
17.38	1870	22350.70252
17.37	1770	22350.89779
17.36	1906.666667	22351.09306
17.35	1850	22351.28832
17.34	1866.666667	22351.48358
17.33	1940	22351.67884
17.32	1883.333333	22351.87409
17.31	1850	22352.06934
17.3	1930	22352.26459
17.29	1830	22352.45983
17.28	1906.666667	22352.65507
17.27	2076.666667	22352.8503
17.26	2076.666667	22353.04553
17.25	2006.666667	22353.24076
17.24	2063.333333	22353.43598
17.23	2123.333333	22353.6312
17.22	2136.666667	22353.82642
17.21	2116.666667	22354.02163
17.2	2266.666667	22354.21684
17.19	2253.333333	22354.41204
17.18	2216.666667	22354.60724
17.17	2276.666667	22354.80244
17.16	2206.666667	22354.99763
17.15	2300	22355.19283
17.14	2436.666667	22355.38801
17.13	2403.333333	22355.5832
17.12	2310	22355.77838
17.11	2320	22355.97355
17.1	2513.333333	22356.16872
17.09	2446.666667	22356.36389
17.08	2583.333333	22356.55906
17.07	2666.666667	22356.75422
17.06	2580	22356.94938
17.05	2676.666667	22357.14453
17.04	2640	22357.33968
17.03	2793.333333	22357.53483
17.02	2696.666667	22357.72997
17.01	2776.666667	22357.92511
17	2760	22358.12025
16.99	2826.666667	22358.31538
16.98	3036.666667	22358.51051
16.97	2936.666667	22358.70563
16.96	3030	22358.90076
16.95	3060	22359.09587
16.94	3186.666667	22359.29099
16.93	3143.333333	22359.4861
16.92	3203.333333	22359.68121
16.91	3230	22359.87631
16.9	3263.333333	22360.07141
16.89	3483.333333	22360.26651
16.88	3693.333333	22360.4616
16.87	3690	22360.65669
16.86	3740	22360.85177
16.85	3883.333333	22361.04685
16.84	4290	22361.24193
16.83	4293.333333	22361.43701
16.82	4543.333333	22361.63208
16.81	4776.666667	22361.82714
16.8	5036.666667	22362.02221
16.79	5473.333333	22362.21727
16.78	5800	22362.41232
16.77	6233.333333	22362.60737
16.76	7086.666667	22362.80242
16.75	7780	22362.99747
16.74	9443.333333	22363.19251
16.73	12473.33333	22363.38755
16.72	17986.66667	22363.58258
16.71	26083.33333	22363.77761
16.7	36640	22363.97264
16.69	50020	22364.16766
16.68	63890	22364.36268
16.67	77416.66667	22364.5577
16.66	90363.33333	22364.75271
16.65	101906.6667	22364.94772
16.64	111960	22365.14273
16.63	122210	22365.33773
16.62	129430	22365.53273
16.61	136473.3333	22365.72772
16.6	142720	22365.92271
16.59	149460	22366.1177
16.58	154100	22366.31268
16.57	159406.6667	22366.50766
16.56	163343.3333	22366.70264
16.55	169980	22366.89761
16.54	172780	22367.09258
16.53	175450	22367.28754
16.52	178996.6667	22367.4825
16.51	182573.3333	22367.67746
16.5	186406.6667	22367.87242
16.49	190063.3333	22368.06737
16.48	192120	22368.26231
16.47	194096.6667	22368.45726
16.46	197226.6667	22368.6522
16.45	199620	22368.84713
16.44	202500	22369.04206
16.43	203580	22369.23699
16.42	204786.6667	22369.43192
16.41	208583.3333	22369.62684
16.4	209503.3333	22369.82176
16.39	211323.3333	22370.01667
16.38	211540	22370.21158
16.37	213286.6667	22370.40649
16.36	215040	22370.60139
16.35	216186.6667	22370.79629
16.34	216720	22370.99119
16.33	219170	22371.18608
16.32	220383.3333	22371.38097
16.31	221303.3333	22371.57585
16.3	222513.3333	22371.77073
16.29	222056.6667	22371.96561
16.28	223880	22372.16049
16.27	225500	22372.35536
16.26	225240	22372.55022
16.25	225963.3333	22372.74509
16.24	228030	22372.93995
16.23	227826.6667	22373.1348
16.22	228863.3333	22373.32965
16.21	229146.6667	22373.5245
16.2	228850	22373.71935
16.19	231293.3333	22373.91419
16.18	231523.3333	22374.10903
16.17	233006.6667	22374.30386
16.16	231996.6667	22374.49869
16.15	232370	22374.69352
16.14	232380	22374.88834
16.13	233646.6667	22375.08316
16.12	235330	22375.27798
16.11	236036.6667	22375.47279
16.1	236340	22375.6676
16.09	236516.6667	22375.8624
16.08	237243.3333	22376.0572
16.07	237560	22376.252
16.06	237560	22376.44679
16.05	237816.6667	22376.64158
16.04	237673.3333	22376.83637
16.03	239383.3333	22377.03115
16.02	239200	22377.22593
16.01	239493.3333	22377.42071
16	241493.3333	22377.61548
15.99	240333.3333	22377.81025
15.98	239956.6667	22378.00501
15.97	239820	22378.19977
15.96	239980	22378.39453
15.95	239826.6667	22378.58928
15.94	240693.3333	22378.78403
15.93	241666.6667	22378.97878
15.92	242076.6667	22379.17352
15.91	243803.3333	22379.36826
15.9	243073.3333	22379.563
15.89	243523.3333	22379.75773
15.88	244166.6667	22379.95246
15.87	244803.3333	22380.14718
15.86	244726.6667	22380.3419
15.85	245443.3333	22380.53662
15.84	243966.6667	22380.73133
15.83	245236.6667	22380.92604
15.82	245053.3333	22381.12075
15.81	243973.3333	22381.31545
15.8	244886.6667	22381.51015
15.79	244856.6667	22381.70485
15.78	243766.6667	22381.89954
15.77	245883.3333	22382.09423
15.76	245946.6667	22382.28891
15.75	246126.6667	22382.48359
15.74	246963.3333	22382.67827
15.73	244966.6667	22382.87294
15.72	247203.3333	22383.06761
15.71	245936.6667	22383.26228
15.7	244576.6667	22383.45694
15.69	246550	22383.6516
15.68	246213.3333	22383.84625
15.67	245740	22384.04091
15.66	245153.3333	22384.23555
15.65	245583.3333	22384.4302
15.64	246066.6667	22384.62484
15.63	245793.3333	22384.81947
15.62	245376.6667	22385.01411
15.61	246820	22385.20874
15.6	245290	22385.40336
15.59	246873.3333	22385.59799
15.58	245163.3333	22385.7926
15.57	245683.3333	22385.98722
15.56	245236.6667	22386.18183
15.55	244690	22386.37644
15.54	245863.3333	22386.57104
15.53	243500	22386.76564
15.52	243973.3333	22386.96024
15.51	243806.6667	22387.15483
15.5	244030	22387.34942
15.49	244483.3333	22387.54401
15.48	242883.3333	22387.73859
15.47	243740	22387.93317
15.46	242736.6667	22388.12774
15.45	241873.3333	22388.32231
15.44	240206.6667	22388.51688
15.43	240406.6667	22388.71144
15.42	241846.6667	22388.906
15.41	240830	22389.10056
15.4	239393.3333	22389.29511
15.39	239820	22389.48966
15.38	239493.3333	22389.68421
15.37	238730	22389.87875
15.36	236870	22390.07329
15.35	236563.3333	22390.26782
15.34	236480	22390.46235
15.33	235993.3333	22390.65688
15.32	235436.6667	22390.8514
15.31	234220	22391.04592
15.3	234793.3333	22391.24044
15.29	233786.6667	22391.43495
15.28	234193.3333	22391.62946
15.27	232643.3333	22391.82396
15.26	231970	22392.01847
15.25	231973.3333	22392.21296
15.24	231666.6667	22392.40746
15.23	230210	22392.60195
15.22	228800	22392.79644
15.21	229406.6667	22392.99092
15.2	228053.3333	22393.1854
15.19	226570	22393.37987
15.18	226303.3333	22393.57435
15.17	225743.3333	22393.76881
15.16	224723.3333	22393.96328
15.15	223663.3333	22394.15774
15.14	223036.6667	22394.3522
15.13	222823.3333	22394.54665
15.12	221463.3333	22394.7411
15.11	220523.3333	22394.93555
15.1	220216.6667	22395.12999
15.09	218570	22395.32443
15.08	218546.6667	22395.51887
15.07	218440	22395.7133
15.06	216916.6667	22395.90773
15.05	216646.6667	22396.10215
15.04	215993.3333	22396.29657
15.03	214790	22396.49099
15.02	214010	22396.6854
15.01	212436.6667	22396.87981
15	213130	22397.07422
14.99	212313.3333	22397.26862
14.98	212156.6667	22397.46302
14.97	211250	22397.65742
14.96	209920	22397.85181
14.95	208993.3333	22398.0462
14.94	209650	22398.24058
14.93	208703.3333	22398.43496
14.92	206133.3333	22398.62934
14.91	205670	22398.82371
14.9	204990	22399.01808
14.89	204456.6667	22399.21245
14.88	204523.3333	22399.40681
14.87	202660	22399.60117
14.86	202200	22399.79552
14.85	201266.6667	22399.98987
14.84	200696.6667	22400.18422
14.83	199856.6667	22400.37856
14.82	200423.3333	22400.5729
14.81	198440	22400.76724
14.8	198936.6667	22400.96157
14.79	197040	22401.1559
14.78	197370	22401.35023
14.77	195160	22401.54455
14.76	194650	22401.73887
14.75	194123.3333	22401.93318
14.74	193296.6667	22402.12749
14.73	191230	22402.3218
14.72	191703.3333	22402.51611
14.71	192063.3333	22402.7104
14.7	191340	22402.9047
14.69	190116.6667	22403.09899
14.68	189503.3333	22403.29328
14.67	188446.6667	22403.48757
14.66	186873.3333	22403.68185
14.65	187360	22403.87613
14.64	186370	22404.0704
14.63	185926.6667	22404.26467
14.62	184943.3333	22404.45894
14.61	184250	22404.6532
14.6	182916.6667	22404.84746
14.59	182943.3333	22405.04172
14.58	181290	22405.23597
14.57	182453.3333	22405.43022
14.56	181203.3333	22405.62446
14.55	179770	22405.8187
14.54	179966.6667	22406.01294
14.53	180170	22406.20718
14.52	178826.6667	22406.40141
14.51	177313.3333	22406.59563
14.5	177483.3333	22406.78986
14.49	175923.3333	22406.98407
14.48	176210	22407.17829
14.47	174990	22407.3725
14.46	176366.6667	22407.56671
14.45	174340	22407.76091
14.44	173276.6667	22407.95511
14.43	172736.6667	22408.14931
14.42	172486.6667	22408.34351
14.41	171000	22408.5377
14.4	170946.6667	22408.73188
14.39	171120	22408.92606
14.38	169630	22409.12024
14.37	169870	22409.31442
14.36	168646.6667	22409.50859
14.35	168866.6667	22409.70276
14.34	168063.3333	22409.89692
14.33	167946.6667	22410.09108
14.32	167770	22410.28524
14.31	166846.6667	22410.47939
14.3	165376.6667	22410.67354
14.29	164950	22410.86769
14.28	164526.6667	22411.06183
14.27	163823.3333	22411.25597
14.26	162896.6667	22411.4501
14.25	163730	22411.64423
14.24	162163.3333	22411.83836
14.23	161446.6667	22412.03248
14.22	161500	22412.2266
