	XPS_UPS_18Jan2022/P3HT/Au/1/2: Sequence/Cut-Off	
Binding energy (eV)	Counts per second	Trans Fn
19.22	926.6666667	22314.71119
19.21	926.6666667	22314.90712
19.2	900	22315.10305
19.19	946.6666667	22315.29898
19.18	1006.666667	22315.4949
19.17	940	22315.69083
19.16	980	22315.88674
19.15	873.3333333	22316.08266
19.14	926.6666667	22316.27857
19.13	940	22316.47447
19.12	926.6666667	22316.67038
19.11	1046.666667	22316.86628
19.1	953.3333333	22317.06217
19.09	870	22317.25806
19.08	860	22317.45395
19.07	980	22317.64984
19.06	960	22317.84572
19.05	953.3333333	22318.0416
19.04	983.3333333	22318.23747
19.03	1013.333333	22318.43334
19.02	903.3333333	22318.62921
19.01	1010	22318.82507
19	996.6666667	22319.02093
18.99	973.3333333	22319.21679
18.98	906.6666667	22319.41264
18.97	963.3333333	22319.60849
18.96	946.6666667	22319.80433
18.95	980	22320.00017
18.94	1006.666667	22320.19601
18.93	960	22320.39185
18.92	956.6666667	22320.58768
18.91	1040	22320.78351
18.9	1043.333333	22320.97933
18.89	926.6666667	22321.17515
18.88	1060	22321.37097
18.87	970	22321.56678
18.86	1060	22321.76259
18.85	1086.666667	22321.95839
18.84	1083.333333	22322.15419
18.83	1096.666667	22322.34999
18.82	953.3333333	22322.54579
18.81	1026.666667	22322.74158
18.8	1016.666667	22322.93737
18.79	1180	22323.13315
18.78	1070	22323.32893
18.77	1196.666667	22323.52471
18.76	1060	22323.72048
18.75	1040	22323.91625
18.74	1186.666667	22324.11202
18.73	1043.333333	22324.30778
18.72	1160	22324.50354
18.71	1200	22324.69929
18.7	1173.333333	22324.89504
18.69	1226.666667	22325.09079
18.68	1376.666667	22325.28654
18.67	1253.333333	22325.48228
18.66	1420	22325.67801
18.65	1380	22325.87375
18.64	1313.333333	22326.06948
18.63	1313.333333	22326.2652
18.62	1306.666667	22326.46093
18.61	1493.333333	22326.65665
18.6	1366.666667	22326.85236
18.59	1350	22327.04807
18.58	1396.666667	22327.24378
18.57	1476.666667	22327.43949
18.56	1456.666667	22327.63519
18.55	1460	22327.83088
18.54	1593.333333	22328.02658
18.53	1523.333333	22328.22227
18.52	1553.333333	22328.41796
18.51	1636.666667	22328.61364
18.5	1616.666667	22328.80932
18.49	1570	22329.00499
18.48	1700	22329.20067
18.47	1803.333333	22329.39633
18.46	1740	22329.592
18.45	1586.666667	22329.78766
18.44	1773.333333	22329.98332
18.43	1896.666667	22330.17897
18.42	1876.666667	22330.37462
18.41	1893.333333	22330.57027
18.4	1963.333333	22330.76591
18.39	1883.333333	22330.96155
18.38	1943.333333	22331.15719
18.37	2153.333333	22331.35282
18.36	2073.333333	22331.54845
18.35	2096.666667	22331.74407
18.34	2143.333333	22331.9397
18.33	2023.333333	22332.13531
18.32	2116.666667	22332.33093
18.31	2323.333333	22332.52654
18.3	2343.333333	22332.72215
18.29	2293.333333	22332.91775
18.28	2363.333333	22333.11335
18.27	2396.666667	22333.30895
18.26	2383.333333	22333.50454
18.25	2540	22333.70013
18.24	2473.333333	22333.89571
18.23	2410	22334.0913
18.22	2553.333333	22334.28687
18.21	2670	22334.48245
18.2	2543.333333	22334.67802
18.19	2683.333333	22334.87359
18.18	2813.333333	22335.06915
18.17	2776.666667	22335.26471
18.16	2823.333333	22335.46027
18.15	2770	22335.65582
18.14	2880	22335.85137
18.13	2976.666667	22336.04691
18.12	3230	22336.24246
18.11	3173.333333	22336.438
18.1	3143.333333	22336.63353
18.09	3186.666667	22336.82906
18.08	3396.666667	22337.02459
18.07	3310	22337.22011
18.06	3416.666667	22337.41563
18.05	3590	22337.61115
18.04	3546.666667	22337.80666
18.03	3563.333333	22338.00217
18.02	3610	22338.19768
18.01	3676.666667	22338.39318
18	3906.666667	22338.58868
17.99	3910	22338.78417
17.98	3843.333333	22338.97967
17.97	3973.333333	22339.17515
17.96	3950	22339.37064
17.95	3933.333333	22339.56612
17.94	4223.333333	22339.7616
17.93	4270	22339.95707
17.92	4320	22340.15254
17.91	4150	22340.348
17.9	4306.666667	22340.54347
17.89	4426.666667	22340.73893
17.88	4793.333333	22340.93438
17.87	4656.666667	22341.12983
17.86	4643.333333	22341.32528
17.85	4770	22341.52073
17.84	4690	22341.71617
17.83	4816.666667	22341.9116
17.82	4850	22342.10704
17.81	4850	22342.30247
17.8	4996.666667	22342.49789
17.79	5013.333333	22342.69332
17.78	5020	22342.88873
17.77	5016.666667	22343.08415
17.76	5210	22343.27956
17.75	5243.333333	22343.47497
17.74	4876.666667	22343.67037
17.73	5196.666667	22343.86578
17.72	5240	22344.06117
17.71	5423.333333	22344.25657
17.7	5450	22344.45196
17.69	5613.333333	22344.64734
17.68	5623.333333	22344.84273
17.67	5600	22345.0381
17.66	5450	22345.23348
17.65	5586.666667	22345.42885
17.64	5776.666667	22345.62422
17.63	5646.666667	22345.81959
17.62	5626.666667	22346.01495
17.61	5576.666667	22346.2103
17.6	5903.333333	22346.40566
17.59	5896.666667	22346.60101
17.58	6010	22346.79635
17.57	5726.666667	22346.9917
17.56	5873.333333	22347.18704
17.55	6110	22347.38237
17.54	6090	22347.5777
17.53	6366.666667	22347.77303
17.52	6526.666667	22347.96836
17.51	6216.666667	22348.16368
17.5	6326.666667	22348.359
17.49	6173.333333	22348.55431
17.48	6503.333333	22348.74962
17.47	6583.333333	22348.94493
17.46	6696.666667	22349.14023
17.45	6793.333333	22349.33553
17.44	6866.666667	22349.53083
17.43	6813.333333	22349.72612
17.42	7390	22349.92141
17.41	6890	22350.11669
17.4	7143.333333	22350.31197
17.39	7463.333333	22350.50725
17.38	7460	22350.70252
17.37	7406.666667	22350.89779
17.36	7213.333333	22351.09306
17.35	7766.666667	22351.28832
17.34	7720	22351.48358
17.33	7863.333333	22351.67884
17.32	7923.333333	22351.87409
17.31	8046.666667	22352.06934
17.3	8220	22352.26459
17.29	8176.666667	22352.45983
17.28	8540	22352.65507
17.27	8830	22352.8503
17.26	9166.666667	22353.04553
17.25	9426.666667	22353.24076
17.24	9860	22353.43598
17.23	10270	22353.6312
17.22	10906.66667	22353.82642
17.21	11420	22354.02163
17.2	12413.33333	22354.21684
17.19	12863.33333	22354.41204
17.18	13873.33333	22354.60724
17.17	14613.33333	22354.80244
17.16	15480	22354.99763
17.15	16556.66667	22355.19283
17.14	18266.66667	22355.38801
17.13	19780	22355.5832
17.12	22356.66667	22355.77838
17.11	26223.33333	22355.97355
17.1	32573.33333	22356.16872
17.09	44373.33333	22356.36389
17.08	62633.33333	22356.55906
17.07	88570	22356.75422
17.06	119533.3333	22356.94938
17.05	154973.3333	22357.14453
17.04	190286.6667	22357.33968
17.03	221843.3333	22357.53483
17.02	249670	22357.72997
17.01	276273.3333	22357.92511
17	299036.6667	22358.12025
16.99	318736.6667	22358.31538
16.98	337243.3333	22358.51051
16.97	353560	22358.70563
16.96	366750	22358.90076
16.95	381926.6667	22359.09587
16.94	394660	22359.29099
16.93	406690	22359.4861
16.92	416316.6667	22359.68121
16.91	427486.6667	22359.87631
16.9	436870	22360.07141
16.89	444110	22360.26651
16.88	452176.6667	22360.4616
16.87	460060	22360.65669
16.86	467090	22360.85177
16.85	471730	22361.04685
16.84	479093.3333	22361.24193
16.83	485283.3333	22361.43701
16.82	488130	22361.63208
16.81	490726.6667	22361.82714
16.8	499140	22362.02221
16.79	499836.6667	22362.21727
16.78	505206.6667	22362.41232
16.77	509053.3333	22362.60737
16.76	510980	22362.80242
16.75	513446.6667	22362.99747
16.74	516226.6667	22363.19251
16.73	518556.6667	22363.38755
16.72	518116.6667	22363.58258
16.71	518090	22363.77761
16.7	519160	22363.97264
16.69	519916.6667	22364.16766
16.68	522013.3333	22364.36268
16.67	517686.6667	22364.5577
16.66	519813.3333	22364.75271
16.65	520946.6667	22364.94772
16.64	522206.6667	22365.14273
16.63	522886.6667	22365.33773
16.62	520973.3333	22365.53273
16.61	519103.3333	22365.72772
16.6	518096.6667	22365.92271
16.59	519016.6667	22366.1177
16.58	517593.3333	22366.31268
16.57	518080	22366.50766
16.56	517746.6667	22366.70264
16.55	514500	22366.89761
16.54	514600	22367.09258
16.53	513216.6667	22367.28754
16.52	511000	22367.4825
16.51	510663.3333	22367.67746
16.5	507820	22367.87242
16.49	505890	22368.06737
16.48	504806.6667	22368.26231
16.47	504603.3333	22368.45726
16.46	503393.3333	22368.6522
16.45	502960	22368.84713
16.44	501863.3333	22369.04206
16.43	501563.3333	22369.23699
16.42	499176.6667	22369.43192
16.41	497583.3333	22369.62684
16.4	495473.3333	22369.82176
16.39	494970	22370.01667
16.38	493483.3333	22370.21158
16.37	492520	22370.40649
16.36	490173.3333	22370.60139
16.35	488700	22370.79629
16.34	487600	22370.99119
16.33	486040	22371.18608
16.32	485996.6667	22371.38097
16.31	483023.3333	22371.57585
16.3	483916.6667	22371.77073
16.29	483713.3333	22371.96561
16.28	481420	22372.16049
16.27	480040	22372.35536
16.26	479023.3333	22372.55022
16.25	477200	22372.74509
16.24	477630	22372.93995
16.23	473233.3333	22373.1348
16.22	472990	22373.32965
16.21	471976.6667	22373.5245
16.2	473983.3333	22373.71935
16.19	469443.3333	22373.91419
16.18	468803.3333	22374.10903
16.17	470213.3333	22374.30386
16.16	469243.3333	22374.49869
16.15	467420	22374.69352
16.14	465663.3333	22374.88834
16.13	463956.6667	22375.08316
16.12	463683.3333	22375.27798
16.11	463663.3333	22375.47279
16.1	461096.6667	22375.6676
16.09	460393.3333	22375.8624
16.08	459933.3333	22376.0572
16.07	458280	22376.252
16.06	455683.3333	22376.44679
16.05	456630	22376.64158
16.04	456340	22376.83637
16.03	454273.3333	22377.03115
16.02	452890	22377.22593
16.01	451043.3333	22377.42071
16	448503.3333	22377.61548
15.99	449833.3333	22377.81025
15.98	448193.3333	22378.00501
15.97	447393.3333	22378.19977
15.96	445583.3333	22378.39453
15.95	444506.6667	22378.58928
15.94	443256.6667	22378.78403
15.93	443083.3333	22378.97878
15.92	440613.3333	22379.17352
15.91	440663.3333	22379.36826
15.9	438393.3333	22379.563
15.89	436873.3333	22379.75773
15.88	435880	22379.95246
15.87	434416.6667	22380.14718
15.86	433320	22380.3419
15.85	432050	22380.53662
15.84	430003.3333	22380.73133
15.83	429633.3333	22380.92604
15.82	427680	22381.12075
15.81	426663.3333	22381.31545
15.8	424993.3333	22381.51015
15.79	422256.6667	22381.70485
15.78	421720	22381.89954
15.77	419333.3333	22382.09423
15.76	418656.6667	22382.28891
15.75	417240	22382.48359
15.74	417023.3333	22382.67827
15.73	415800	22382.87294
15.72	413793.3333	22383.06761
15.71	410416.6667	22383.26228
15.7	409510	22383.45694
15.69	410350	22383.6516
15.68	408753.3333	22383.84625
15.67	407423.3333	22384.04091
15.66	408456.6667	22384.23555
15.65	403973.3333	22384.4302
15.64	399670	22384.62484
15.63	399823.3333	22384.81947
15.62	398800	22385.01411
15.61	396833.3333	22385.20874
15.6	396103.3333	22385.40336
15.59	392823.3333	22385.59799
15.58	391473.3333	22385.7926
15.57	389720	22385.98722
15.56	389290	22386.18183
15.55	386950	22386.37644
15.54	384856.6667	22386.57104
15.53	384003.3333	22386.76564
15.52	383236.6667	22386.96024
15.51	380043.3333	22387.15483
15.5	377280	22387.34942
15.49	377056.6667	22387.54401
15.48	375900	22387.73859
15.47	372893.3333	22387.93317
15.46	373283.3333	22388.12774
15.45	371483.3333	22388.32231
15.44	369070	22388.51688
15.43	367243.3333	22388.71144
15.42	364896.6667	22388.906
15.41	364026.6667	22389.10056
15.4	363246.6667	22389.29511
15.39	360113.3333	22389.48966
15.38	358503.3333	22389.68421
15.37	356636.6667	22389.87875
15.36	355783.3333	22390.07329
15.35	354243.3333	22390.26782
15.34	352030	22390.46235
15.33	349686.6667	22390.65688
15.32	349446.6667	22390.8514
15.31	347956.6667	22391.04592
15.3	345696.6667	22391.24044
15.29	344140	22391.43495
15.28	343363.3333	22391.62946
15.27	339946.6667	22391.82396
15.26	339510	22392.01847
15.25	337406.6667	22392.21296
15.24	337016.6667	22392.40746
15.23	336823.3333	22392.60195
15.22	335213.3333	22392.79644
15.21	331310	22392.99092
15.2	328973.3333	22393.1854
15.19	328320	22393.37987
15.18	326893.3333	22393.57435
15.17	325280	22393.76881
15.16	326220	22393.96328
15.15	323293.3333	22394.15774
15.14	323163.3333	22394.3522
15.13	318673.3333	22394.54665
15.12	317983.3333	22394.7411
15.11	318233.3333	22394.93555
15.1	315926.6667	22395.12999
15.09	315236.6667	22395.32443
15.08	313203.3333	22395.51887
15.07	312316.6667	22395.7133
15.06	310540	22395.90773
15.05	309090	22396.10215
15.04	306873.3333	22396.29657
15.03	304863.3333	22396.49099
15.02	305700	22396.6854
15.01	304226.6667	22396.87981
15	303486.6667	22397.07422
14.99	301800	22397.26862
14.98	300346.6667	22397.46302
14.97	297873.3333	22397.65742
14.96	297583.3333	22397.85181
14.95	295963.3333	22398.0462
14.94	294573.3333	22398.24058
14.93	292683.3333	22398.43496
14.92	291306.6667	22398.62934
14.91	290546.6667	22398.82371
14.9	289840	22399.01808
14.89	290160	22399.21245
14.88	287966.6667	22399.40681
14.87	287900	22399.60117
14.86	285943.3333	22399.79552
14.85	283273.3333	22399.98987
14.84	282293.3333	22400.18422
14.83	281416.6667	22400.37856
14.82	279070	22400.5729
14.81	278650	22400.76724
14.8	278553.3333	22400.96157
14.79	277453.3333	22401.1559
14.78	275766.6667	22401.35023
14.77	273800	22401.54455
14.76	273170	22401.73887
14.75	272966.6667	22401.93318
14.74	270606.6667	22402.12749
14.73	271190	22402.3218
14.72	269656.6667	22402.51611
14.71	268993.3333	22402.7104
14.7	268336.6667	22402.9047
14.69	267606.6667	22403.09899
14.68	266003.3333	22403.29328
14.67	265960	22403.48757
14.66	263773.3333	22403.68185
14.65	263386.6667	22403.87613
14.64	261700	22404.0704
14.63	260056.6667	22404.26467
14.62	259030	22404.45894
14.61	257513.3333	22404.6532
14.6	257540	22404.84746
14.59	257226.6667	22405.04172
14.58	255733.3333	22405.23597
14.57	254080	22405.43022
14.56	254836.6667	22405.62446
14.55	253583.3333	22405.8187
14.54	252270	22406.01294
14.53	251486.6667	22406.20718
14.52	250916.6667	22406.40141
14.51	248850	22406.59563
14.5	247160	22406.78986
14.49	247653.3333	22406.98407
14.48	246526.6667	22407.17829
14.47	246776.6667	22407.3725
14.46	244640	22407.56671
14.45	242456.6667	22407.76091
14.44	242563.3333	22407.95511
14.43	241196.6667	22408.14931
14.42	241933.3333	22408.34351
14.41	240220	22408.5377
14.4	237693.3333	22408.73188
14.39	237976.6667	22408.92606
14.38	238270	22409.12024
14.37	237313.3333	22409.31442
14.36	235246.6667	22409.50859
14.35	234420	22409.70276
14.34	234580	22409.89692
14.33	233620	22410.09108
14.32	232376.6667	22410.28524
14.31	231686.6667	22410.47939
14.3	230443.3333	22410.67354
14.29	230306.6667	22410.86769
14.28	228433.3333	22411.06183
14.27	227283.3333	22411.25597
14.26	227863.3333	22411.4501
14.25	226016.6667	22411.64423
14.24	222926.6667	22411.83836
14.23	224566.6667	22412.03248
14.22	222683.3333	22412.2266
